ENVI
description = {
    Sensor = Generic}
samples = 614 
lines   = 512 
bands  = 224
header offset = 0
file type = ENVI Standard
data type = 2
interleave = bip
default bands = {29, 19, 9}
byte order = 1
wavelength = {
0.3698500,
0.3796900,
0.3895300,
0.3993700,
0.4092100,
0.4190600,
0.4289100,
0.4387600,
0.4486100,
0.4584600,
0.4683100,
0.4781700,
0.4880200,
0.4978800,
0.5077400,
0.5176000,
0.5274700,
0.5373300,
0.5472000,
0.5570700,
0.5669400,
0.5768100,
0.5866800,
0.5965600,
0.6064300,
0.6163100,
0.6261900,
0.6360700,
0.6459600,
0.6558400,
0.6657300,
0.6756200,
0.6641400,
0.6737200,
0.6833000,
0.6928800,
0.7024600,
0.7120400,
0.7216300,
0.7312100,
0.7408000,
0.7503800,
0.7599700,
0.7695600,
0.7791400,
0.7887300,
0.7983200,
0.8079100,
0.8175000,
0.8270900,
0.8366800,
0.8462800,
0.8558700,
0.8654700,
0.8750600,
0.8846600,
0.8942500,
0.9038500,
0.9134500,
0.9230500,
0.9326400,
0.9422400,
0.9518500,
0.9614500,
0.9710500,
0.9806500,
0.9902500,
0.9998600,
1.0094600,
1.0190700,
1.0286800,
1.0382800,
1.0478900,
1.0575000,
1.0671100,
1.0767200,
1.0863300,
1.0959400,
1.1055500,
1.1151600,
1.1247800,
1.1343900,
1.1440100,
1.1536200,
1.1632400,
1.1728600,
1.1824700,
1.1920900,
1.2017100,
1.2113300,
1.2209500,
1.2305700,
1.2401900,
1.2498200,
1.2594400,
1.2690600,
1.2543200,
1.2642800,
1.2742400,
1.2842000,
1.2941500,
1.3041100,
1.3140700,
1.3240300,
1.3339900,
1.3439500,
1.3539100,
1.3638700,
1.3738200,
1.3837800,
1.3937400,
1.4037000,
1.4136600,
1.4236100,
1.4335700,
1.4435300,
1.4534900,
1.4634400,
1.4734000,
1.4833600,
1.4933100,
1.5032700,
1.5132300,
1.5231800,
1.5331400,
1.5431000,
1.5530500,
1.5630100,
1.5729700,
1.5829200,
1.5928800,
1.6028300,
1.6127900,
1.6227400,
1.6327000,
1.6426500,
1.6526100,
1.6625600,
1.6725200,
1.6824700,
1.6924300,
1.7023800,
1.7123400,
1.7222900,
1.7322500,
1.7422000,
1.7521500,
1.7621100,
1.7720600,
1.7820200,
1.7919700,
1.8019200,
1.8118800,
1.8218300,
1.8317800,
1.8417300,
1.8516900,
1.8616400,
1.8715900,
1.8815400,
1.8783000,
1.8883400,
1.8983900,
1.9084300,
1.9184600,
1.9285000,
1.9385300,
1.9485600,
1.9585900,
1.9686200,
1.9786400,
1.9886700,
1.9986900,
2.0087000,
2.0187200,
2.0287300,
2.0387400,
2.0487500,
2.0587600,
2.0687600,
2.0787700,
2.0887700,
2.0987700,
2.1087600,
2.1187600,
2.1287500,
2.1387400,
2.1487200,
2.1587100,
2.1686900,
2.1786700,
2.1886500,
2.1986300,
2.2086000,
2.2185700,
2.2285400,
2.2385100,
2.2484800,
2.2584400,
2.2684000,
2.2783600,
2.2883200,
2.2982700,
2.3082200,
2.3181700,
2.3281200,
2.3380700,
2.3480100,
2.3579500,
2.3678900,
2.3778300,
2.3877600,
2.3976900,
2.4076200,
2.4175500,
2.4274800,
2.4374000,
2.4473200,
2.4572400,
2.4671600,
2.4770800,
2.4869900,
2.4969000,
2.5068100}
